Black Body Radiation Experiment Wed, Sep 23, 2020 11:59 AM
Sensor Position (Degrees)	Light Intensity (Volts)
0.00000	-0.17064
0.00000	-0.17242
0.00000	-0.17950
0.00000	-0.17725
0.00000	-0.18015
0.00000	-0.18353
0.00000	-0.17258
0.00000	-0.17999
0.00000	-0.16919
0.00000	-0.16565
0.00000	-0.17161
0.00000	-0.16323
0.00000	-0.16887
0.00000	-0.19175
0.00000	-0.17177
0.00000	-0.18691
0.00000	-0.16549
0.00000	-0.16275
0.00000	-0.18160
0.00000	-0.17258
0.00000	-0.17805
0.00000	-0.15582
0.00000	-0.16662
0.00000	-0.16404
0.00000	-0.17854
0.00000	-0.16710
0.00000	-0.17515
0.00000	-0.17387
0.00000	-0.18691
0.00000	-0.15888
0.00000	-0.17709
0.00000	-0.17999
0.00000	-0.17048
0.00000	-0.16162
0.00000	-0.17225
0.00000	-0.17886
0.00000	-0.16871
0.00000	-0.17419
0.00000	-0.17564
0.00000	-0.17064
0.00000	-0.16243
0.00000	-0.17676
0.00000	-0.18627
0.00000	-0.16758
0.00000	-0.16404
0.00000	-0.18675
0.00000	-0.17145
0.00000	-0.18144
0.00000	-0.17467
0.00000	-0.16629
0.00000	-0.18482
0.00000	-0.16355
0.00000	-0.16420
0.00000	-0.17966
0.00000	-0.17838
0.00000	-0.16114
0.00000	-0.17000
0.00000	-0.15341
0.00000	-0.19207
0.00000	-0.17870
0.00000	-0.18063
0.00000	-0.16130
0.00000	-0.17016
0.00000	-0.19046
0.00000	-0.18482
0.00000	-0.15792
0.00000	-0.17725
0.00000	-0.17564
0.00000	-0.16694
0.00000	-0.16082
0.00000	-0.17370
0.00000	-0.18240
0.00000	-0.16629
0.00000	-0.15469
0.00000	-0.17773
0.00000	-0.17983
0.00000	-0.16162
0.00000	-0.16549
0.00000	-0.18917
0.00000	-0.17499
0.00000	-0.16726
0.00000	-0.15969
0.00000	-0.18691
0.00000	-0.17564
0.00000	-0.14970
0.00000	-0.16484
0.00000	-0.17870
0.00000	-0.19400
0.00000	-0.16033
0.00000	-0.15904
0.00000	-0.16291
0.00000	-0.18514
0.00000	-0.16581
0.00000	-0.16662
0.00000	-0.16259
0.00000	-0.15711
0.00000	-0.16726
0.00000	-0.17129
0.00000	-0.15486
0.00000	-0.15018
0.00000	-0.13971
0.00000	-0.15421
0.00000	-0.14761
0.00000	-0.16533
0.00000	-0.15018
0.00000	-0.13971
0.00000	-0.15502
0.00000	-0.16484
0.00000	-0.15937
0.00000	-0.14825
0.00000	-0.15663
0.00000	-0.15341
0.00000	-0.17644
0.00000	-0.14084
0.00000	-0.15083
0.00000	-0.16565
0.00000	-0.16839
0.00000	-0.17048
0.00000	-0.14777
0.00000	-0.17387
0.00000	-0.17403
0.00000	-0.16146
0.00000	-0.15808
0.00000	-0.15244
0.00000	-0.15405
0.00000	-0.17322
0.00000	-0.16774
0.00000	-0.15711
0.00000	-0.16049
0.00000	-0.16049
0.00000	-0.16790
0.00000	-0.15679
0.00000	-0.16436
0.00000	-0.14841
0.00000	-0.14809
0.00000	-0.16307
0.00000	-0.16758
0.00000	-0.15743
0.00000	-0.15228
0.00000	-0.16227
0.00000	-0.18047
0.00000	-0.15840
0.00000	-0.16533
0.00000	-0.16114
0.00000	-0.16855
0.00000	-0.16629
0.00000	-0.15260
0.00000	-0.17032
0.00000	-0.17676
0.00000	-0.16178
0.00000	-0.15743
0.00000	-0.17387
0.00000	-0.16645
0.00000	-0.16307
0.00000	-0.15695
0.00000	-0.15727
0.00000	-0.17338
0.00000	-0.17966
0.00000	-0.14793
0.00000	-0.15469
0.00000	-0.16903
0.00000	-0.16484
0.00000	-0.15727
0.00000	-0.15083
0.00000	-0.16597
0.00000	-0.16919
0.00000	-0.16694
0.00000	-0.15502
0.00000	-0.15405
0.00000	-0.16839
0.00000	-0.15534
0.00000	-0.14583
0.00000	-0.16355
0.00000	-0.16774
0.00000	-0.16919
0.00000	-0.15856
0.00000	-0.16066
0.00000	-0.16742
0.00000	-0.17048
0.00000	-0.15550
0.00000	-0.14954
0.00000	-0.17177
0.00000	-0.16162
0.00000	-0.15179
0.00000	-0.16001
0.00000	-0.16033
0.00000	-0.17290
0.01035	-0.17258
0.01035	-0.14938
0.01035	-0.15743
0.01035	-0.15324
0.01035	-0.16839
0.01035	-0.16243
0.01035	-0.14003
0.01035	-0.14132
0.01035	-0.16742
0.01035	-0.16130
0.01035	-0.15453
0.01035	-0.14567
0.01035	-0.15631
0.01035	-0.16468
0.01035	-0.15260
0.01035	-0.15405
0.01035	-0.15921
0.01035	-0.16355
0.01035	-0.14293
0.01035	-0.15115
0.02070	-0.15969
0.02070	-0.16468
0.02070	-0.16436
0.03104	-0.15631
0.03104	-0.15921
0.03104	-0.16339
0.04139	-0.16565
0.05174	-0.17129
0.07244	-0.16726
0.08279	-0.16178
0.09313	-0.16404
0.10348	-0.15808
0.12418	-0.15888
0.12418	-0.16710
0.13453	-0.15486
0.14487	-0.15034
0.14487	-0.14777
0.14487	-0.15534
0.14487	-0.16146
0.14487	-0.17048
0.15522	-0.14422
0.15522	-0.14567
0.17592	-0.13794
0.19662	-0.15034
0.22766	-0.14213
0.27940	-0.14197
0.33114	-0.15244
0.39323	-0.14116
0.45532	-0.14680
0.50706	-0.13214
0.55880	-0.14132
0.64159	-0.16807
0.69333	-0.16372
0.72437	-0.16130
0.76577	-0.16339
0.79681	-0.16339
0.84855	-0.15115
0.90029	-0.14551
0.96238	-0.14181
1.03482	-0.14696
1.11761	-0.14326
1.17969	-0.13279
1.26248	-0.14680
1.32457	-0.14664
1.38666	-0.14277
1.46944	-0.16049
1.55223	-0.13810
1.64536	-0.14664
1.72815	-0.15937
1.83163	-0.14068
1.90407	-0.14954
1.97651	-0.13923
2.05929	-0.15244
2.14208	-0.15131
2.21451	-0.15695
2.29730	-0.14342
2.39043	-0.14712
2.47322	-0.14567
2.56635	-0.13681
2.66983	-0.14761
2.76297	-0.15018
2.85610	-0.15502
2.92854	-0.14084
3.02167	-0.15228
3.10446	-0.15308
3.18724	-0.14406
3.28038	-0.14664
3.37351	-0.15631
3.45630	-0.14825
3.55978	-0.15244
3.65291	-0.14712
3.74605	-0.14745
3.84953	-0.14036
3.96336	-0.14390
4.06684	-0.14165
4.17032	-0.14293
4.25311	-0.14100
4.34624	-0.13826
4.42903	-0.13424
4.52216	-0.14293
4.61530	-0.13649
4.70843	-0.14342
4.81191	-0.13424
4.90504	-0.13134
5.00853	-0.14696
5.15340	-0.15518
5.25688	-0.15179
5.37071	-0.15921
5.47420	-0.15727
5.58803	-0.15163
5.72255	-0.15099
5.84673	-0.16581
5.98126	-0.15776
6.11578	-0.15163
6.22961	-0.14664
6.33310	-0.14809
6.44693	-0.15695
6.55041	-0.15743
6.63319	-0.15276
6.72633	-0.16372
6.80911	-0.15647
6.90225	-0.14567
6.97468	-0.15244
7.05747	-0.15631
7.14026	-0.14600
7.21269	-0.16162
7.30583	-0.14793
7.39896	-0.14648
7.49209	-0.13649
7.58523	-0.14406
7.65767	-0.15582
7.75080	-0.16388
7.83358	-0.14761
7.92672	-0.16372
8.03020	-0.15647
8.12333	-0.15018
8.22682	-0.14567
8.31995	-0.14342
8.42343	-0.15469
8.51657	-0.15324
8.60970	-0.15018
8.70283	-0.15228
8.79597	-0.15421
8.88910	-0.15051
8.96154	-0.14761
9.05467	-0.15437
9.13746	-0.16017
9.22024	-0.15502
9.30303	-0.15115
9.37547	-0.14616
9.45825	-0.15647
9.54104	-0.15727
9.62382	-0.14422
9.71696	-0.14148
9.79974	-0.15969
9.89288	-0.13230
9.98601	-0.15679
10.05845	-0.16227
10.15158	-0.15953
10.21367	-0.14535
10.29646	-0.16066
10.36889	-0.15647
10.44133	-0.15196
10.50342	-0.14438
10.56551	-0.15824
10.63795	-0.15308
10.73108	-0.16323
10.81386	-0.15067
10.88630	-0.15743
10.96909	-0.14664
11.03118	-0.14422
11.10361	-0.15002
11.18640	-0.13971
11.26919	-0.14519
11.35197	-0.12763
11.42441	-0.14003
11.54859	-0.13520
11.63137	-0.14777
11.72451	-0.13536
11.80729	-0.13552
11.90043	-0.12972
11.97286	-0.13746
12.05565	-0.13407
12.13843	-0.13826
12.22122	-0.13955
12.30401	-0.14648
12.38679	-0.14954
12.46958	-0.13262
12.55236	-0.13166
12.63515	-0.12634
12.71793	-0.12634
12.84211	-0.13504
12.90420	-0.12231
12.99733	-0.11941
13.12151	-0.12344
13.22499	-0.09251
13.30778	-0.09976
13.42161	-0.07962
13.50440	-0.08043
13.63892	-0.06802
13.72171	-0.04998
13.84589	-0.05433
13.97006	-0.01502
14.07355	-0.00230
14.19773	0.01671
14.32190	0.04990
14.44608	0.09066
14.58061	0.16927
14.72548	0.19279
14.83931	0.24289
14.95314	0.30266
15.07732	0.36339
15.21185	0.40609
15.32568	0.45748
15.42916	0.50484
15.53264	0.51611
15.61543	0.55574
15.68787	0.56187
15.79135	0.58780
15.86378	0.58893
15.95692	0.56364
16.01901	0.55929
16.08110	0.54688
16.15353	0.54157
16.20528	0.52320
16.27771	0.50725
16.33980	0.48599
16.40189	0.46005
16.47433	0.44378
16.53642	0.41221
16.59851	0.38482
16.66060	0.36356
16.72268	0.35308
16.78477	0.31700
16.84686	0.28687
16.91930	0.26319
16.99174	0.24773
17.04348	0.21873
17.10557	0.21309
17.15731	0.17330
17.21940	0.16057
17.28149	0.13045
17.34358	0.10999
17.39532	0.09694
17.44706	0.07390
17.49880	0.05505
17.56089	0.04184
17.61263	0.02960
17.66437	0.00914
17.71611	-0.00938
17.77820	-0.01986
17.84029	-0.03452
17.89203	-0.03967
17.94377	-0.04934
17.99551	-0.05723
18.04725	-0.06947
18.09899	-0.06835
18.15074	-0.08397
18.20248	-0.09928
18.25422	-0.09493
18.31631	-0.08993
18.36805	-0.08719
18.44049	-0.09783
18.49223	-0.09751
18.55432	-0.10475
18.61640	-0.11442
18.68884	-0.10508
18.76128	-0.10121
18.83372	-0.11539
18.90615	-0.12054
18.97859	-0.11506
19.05103	-0.11990
19.12347	-0.11442
19.20625	-0.11474
19.27869	-0.12634
19.35113	-0.12151
19.42356	-0.12328
19.49600	-0.11684
19.55809	-0.12183
19.63053	-0.11651
19.69262	-0.12119
19.76505	-0.11555
19.82714	-0.10185
19.88923	-0.12006
19.96167	-0.12135
20.03411	-0.12876
20.09620	-0.11410
20.15829	-0.12360
20.21003	-0.11426
20.27212	-0.12956
20.32386	-0.11813
20.39629	-0.11893
20.44804	-0.12489
20.49978	-0.12376
20.58256	-0.12280
20.64465	-0.12376
20.70674	-0.11281
20.77918	-0.12038
20.85162	-0.12763
20.92405	-0.10927
20.99649	-0.09944
21.04823	-0.13150
21.11032	-0.12844
21.16206	-0.12199
21.22415	-0.12505
21.28624	-0.12296
21.34833	-0.12441
21.41042	-0.12457
21.48286	-0.11909
21.54494	-0.11474
21.61738	-0.11603
21.66912	-0.11861
21.73121	-0.11651
21.78295	-0.11668
21.83469	-0.10202
21.87609	-0.10588
21.91748	-0.10556
21.95887	-0.10250
22.01061	-0.11635
22.05201	-0.13085
22.10375	-0.11813
22.15549	-0.10330
22.20723	-0.11426
22.24862	-0.10588
22.31071	-0.10798
22.36245	-0.11088
22.43489	-0.11088
22.49698	-0.11990
22.54872	-0.11764
22.61081	-0.11329
22.67290	-0.12731
22.74534	-0.11523
22.80742	-0.09992
22.85917	-0.09815
22.93160	-0.10250
22.99369	-0.09316
23.05578	-0.11039
23.11787	-0.10153
23.17996	-0.11603
23.23170	-0.11313
23.29379	-0.12038
23.34553	-0.10137
23.40762	-0.09187
23.46971	-0.11603
23.52145	-0.10508
23.58354	-0.10185
23.63528	-0.11394
23.70772	-0.10798
23.76981	-0.11829
23.83190	-0.11909
23.88364	-0.12715
23.95607	-0.11168
24.03886	-0.11249
24.11130	-0.10153
24.19408	-0.10427
24.26652	-0.09734
24.33896	-0.10540
24.41139	-0.10910
24.50453	-0.10363
24.57697	-0.08961
24.64940	-0.12328
24.72184	-0.11120
24.78393	-0.11039
24.83567	-0.11378
24.90811	-0.10910
24.98055	-0.10540
25.05298	-0.09654
25.12542	-0.09879
25.20821	-0.10330
25.29099	-0.09316
25.34273	-0.10073
25.40482	-0.10347
25.45656	-0.09686
25.51865	-0.10604
25.57039	-0.11168
25.63248	-0.10169
25.68422	-0.10765
25.73596	-0.10685
25.79805	-0.10620
25.84979	-0.10411
25.89119	-0.09702
25.93258	-0.08558
25.98432	-0.09847
26.04641	-0.09831
26.09815	-0.09203
26.16024	-0.09895
26.21198	-0.10508
26.26372	-0.10379
26.31546	-0.10314
26.36720	-0.11700
26.41894	-0.10685
26.47069	-0.11249
26.52243	-0.09944
26.58452	-0.10927
26.63626	-0.09283
26.68800	-0.08897
26.72939	-0.08655
26.78113	-0.09686
26.83287	-0.09638
26.89496	-0.09734
26.95705	-0.08816
27.02949	-0.10411
27.09158	-0.10556
27.15367	-0.09879
27.21576	-0.09928
27.27784	-0.10878
27.32959	-0.09638
27.39168	-0.10749
27.44342	-0.10427
27.50551	-0.09203
27.54690	-0.09235
27.58829	-0.09976
27.62968	-0.07946
27.67108	-0.06947
27.71247	-0.08446
27.74351	-0.08462
27.78491	-0.09042
27.83665	-0.09235
27.88839	-0.08897
27.96083	-0.08172
28.03326	-0.08462
28.09535	-0.10024
28.16779	-0.10427
28.22988	-0.09444
28.29197	-0.10492
28.36441	-0.08236
28.42649	-0.08542
28.48858	-0.08832
28.55067	-0.08123
28.61276	-0.08719
28.67485	-0.08140
28.74729	-0.09042
28.79903	-0.08687
28.85077	-0.08703
28.90251	-0.08172
28.96460	-0.08558
29.01634	-0.07688
29.06808	-0.07737
29.11982	-0.08719
29.18191	-0.08607
29.24400	-0.08832
29.29574	-0.09026
29.34748	-0.09009
29.40957	-0.09847
29.48201	-0.10282
29.54410	-0.08945
29.59584	-0.08397
29.65793	-0.07447
29.72002	-0.07737
29.78211	-0.09992
29.84420	-0.08027
29.90629	-0.07995
29.97872	-0.08478
30.04081	-0.08027