Black Body Radiation Experiment Wed, Sep 23, 2020 11:41 AM
Sensor Position (Degrees)	Light Intensity (Volts)
0.00000	-0.02807
0.00000	-0.02920
0.00000	-0.02743
0.00000	-0.02952
0.00000	-0.02485
0.00000	-0.02936
0.00000	-0.02759
0.00000	-0.02839
0.00000	-0.02759
0.00000	-0.03081
0.00000	-0.03339
0.00000	-0.02533
0.00000	-0.02807
0.00000	-0.02646
0.00000	-0.02582
0.00000	-0.03097
0.00000	-0.02598
0.00000	-0.02388
0.00000	-0.02582
0.00000	-0.02549
0.00000	-0.02791
0.00000	-0.02259
0.00000	-0.02630
0.00000	-0.02791
0.00000	-0.03081
0.00000	-0.02711
0.00000	-0.02437
0.00000	-0.02791
0.00000	-0.02807
0.00000	-0.02727
0.00000	-0.02598
0.00000	-0.02485
0.00000	-0.02453
0.00000	-0.02453
0.00000	-0.02904
0.00000	-0.03049
0.00000	-0.02984
0.00000	-0.02759
0.00000	-0.02421
0.00000	-0.02259
0.00000	-0.02276
0.00000	-0.02791
0.00000	-0.02582
0.00000	-0.02549
0.00000	-0.02872
0.00000	-0.02533
0.00000	-0.02823
0.00000	-0.02469
0.00000	-0.02630
0.00000	-0.02372
0.00000	-0.02936
0.00000	-0.02823
0.00000	-0.02340
0.00000	-0.02549
0.00000	-0.02598
0.00000	-0.02727
0.00000	-0.02179
0.00000	-0.02984
0.00000	-0.02276
0.00000	-0.02533
0.00000	-0.02340
0.00000	-0.02678
0.00000	-0.02501
0.00000	-0.02517
0.00000	-0.02421
0.00000	-0.02501
0.00000	-0.02775
0.00000	-0.03065
0.00000	-0.02356
0.00000	-0.02775
0.00000	-0.02807
0.00000	-0.02678
0.00000	-0.02888
0.00000	-0.02227
0.00000	-0.02839
0.00000	-0.02727
0.00000	-0.02453
0.00000	-0.02662
0.00000	-0.02404
0.00000	-0.02872
0.00000	-0.02904
0.00000	-0.02549
0.00000	-0.02823
0.00000	-0.02968
0.00000	-0.02888
0.00000	-0.02775
0.00000	-0.02582
0.00000	-0.02839
0.00000	-0.02276
0.00000	-0.02421
0.00000	-0.02694
0.00000	-0.02566
0.00000	-0.02533
0.00000	-0.02823
0.00000	-0.02453
0.00000	-0.02678
0.00000	-0.02678
0.00000	-0.02694
0.00000	-0.02856
0.00000	-0.02453
0.00000	-0.02388
0.00000	-0.02678
0.00000	-0.02098
0.00000	-0.02549
0.00000	-0.02517
0.00000	-0.02227
0.00000	-0.02646
0.00000	-0.02533
0.00000	-0.02453
0.00000	-0.02694
0.00000	-0.02566
0.00000	-0.02340
0.00000	-0.02163
0.00000	-0.02646
0.00000	-0.02469
0.00000	-0.02276
0.00000	-0.02437
0.00000	-0.02839
0.00000	-0.02743
0.00000	-0.02936
0.00000	-0.02179
0.00000	-0.02711
0.00000	-0.02839
0.00000	-0.02388
0.00000	-0.02082
0.00000	-0.02469
0.00000	-0.02517
0.00000	-0.02856
0.00000	-0.02404
0.00000	-0.02743
0.00000	-0.02662
0.00000	-0.02630
0.00000	-0.02791
0.00000	-0.02453
0.00000	-0.02453
0.00000	-0.02968
0.00000	-0.02791
0.00000	-0.02340
0.00000	-0.02050
0.00000	-0.02711
0.00000	-0.02678
0.00000	-0.02517
0.00000	-0.02727
0.00000	-0.02598
0.00000	-0.02952
0.00000	-0.02533
0.00000	-0.01953
0.00000	-0.02421
0.00000	-0.02791
0.00000	-0.02566
0.00000	-0.02727
0.00000	-0.02308
0.00000	-0.02678
0.00000	-0.02711
0.00000	-0.02598
0.00000	-0.02517
0.00000	-0.02711
0.00000	-0.02791
0.00000	-0.02388
0.00000	-0.02356
0.00000	-0.02227
0.00000	-0.02404
0.00000	-0.03033
0.00000	-0.02630
0.00000	-0.02259
0.00000	-0.02775
0.00000	-0.02646
0.00000	-0.02775
0.00000	-0.02404
0.00000	-0.03049
0.00000	-0.02211
0.01035	-0.02324
0.01035	-0.02759
0.01035	-0.03033
0.00000	-0.02485
0.00000	-0.02662
0.01035	-0.02630
0.01035	-0.02888
0.01035	-0.02501
0.01035	-0.02324
0.01035	-0.02372
0.01035	-0.02694
0.01035	-0.02501
0.01035	-0.02856
0.01035	-0.02920
0.01035	-0.03049
0.01035	-0.02292
0.01035	-0.02485
0.01035	-0.02485
0.01035	-0.02678
0.01035	-0.02904
0.01035	-0.02711
0.01035	-0.02582
0.01035	-0.02582
0.01035	-0.02404
0.01035	-0.03081
0.01035	-0.02646
0.01035	-0.02388
0.01035	-0.02163
0.01035	-0.02356
0.01035	-0.02807
0.01035	-0.02356
0.01035	-0.02533
0.01035	-0.02324
0.01035	-0.02711
0.01035	-0.02582
0.01035	-0.02485
0.01035	-0.02533
0.01035	-0.02872
0.01035	-0.02872
0.01035	-0.02292
0.01035	-0.02598
0.01035	-0.02533
0.01035	-0.02968
0.01035	-0.02727
0.01035	-0.02582
0.01035	-0.02163
0.01035	-0.02662
0.01035	-0.02308
0.01035	-0.02195
0.01035	-0.02630
0.01035	-0.02421
0.01035	-0.02678
0.01035	-0.02727
0.01035	-0.02582
0.01035	-0.02115
0.01035	-0.02662
0.02070	-0.02662
0.02070	-0.03001
0.02070	-0.02872
0.02070	-0.02485
0.02070	-0.02356
0.02070	-0.02469
0.02070	-0.02276
0.02070	-0.02517
0.02070	-0.02823
0.02070	-0.02888
0.02070	-0.02711
0.02070	-0.02566
0.02070	-0.02598
0.02070	-0.02582
0.02070	-0.02517
0.02070	-0.02469
0.02070	-0.02662
0.02070	-0.02646
0.02070	-0.02678
0.02070	-0.02243
0.02070	-0.02904
0.02070	-0.02920
0.02070	-0.03081
0.02070	-0.02469
0.02070	-0.02485
0.02070	-0.02936
0.02070	-0.02501
0.02070	-0.02920
0.02070	-0.02646
0.02070	-0.02453
0.02070	-0.02469
0.02070	-0.01921
0.02070	-0.02582
0.02070	-0.02936
0.02070	-0.02485
0.02070	-0.02485
0.02070	-0.02388
0.02070	-0.02856
0.02070	-0.03065
0.03104	-0.02984
0.04139	-0.02775
0.07244	-0.02131
0.08279	-0.02582
0.10348	-0.02598
0.12418	-0.02598
0.14487	-0.02678
0.16557	-0.02437
0.19662	-0.03017
0.23801	-0.02872
0.27940	-0.02324
0.31045	-0.02566
0.34149	-0.02662
0.36219	-0.02856
0.39323	-0.02517
0.42428	-0.03258
0.44497	-0.02453
0.44497	-0.02727
0.45532	-0.02549
0.45532	-0.02453
0.45532	-0.02872
0.45532	-0.02356
0.45532	-0.02694
0.45532	-0.02872
0.46567	-0.02823
0.47602	-0.02437
0.55880	-0.02662
0.63124	-0.02856
0.66228	-0.02421
0.68298	-0.02743
0.69333	-0.02807
0.69333	-0.02759
0.72437	-0.02646
0.76577	-0.02566
0.81751	-0.02678
0.84855	-0.02727
0.87960	-0.02920
0.88994	-0.02936
0.91064	-0.02839
0.93134	-0.02839
0.95203	-0.02469
0.98308	-0.02356
1.03482	-0.02823
1.06586	-0.02356
1.07621	-0.02662
1.08656	-0.03001
1.08656	-0.03001
1.12795	-0.03049
1.14865	-0.02582
1.15900	-0.02807
1.16935	-0.03001
1.25213	-0.02646
1.31422	-0.02614
1.35561	-0.03210
1.40735	-0.02485
1.46944	-0.03033
1.53153	-0.02485
1.59362	-0.02791
1.65571	-0.02404
1.70745	-0.02630
1.75919	-0.02308
1.77989	-0.02598
1.81093	-0.03033
1.84198	-0.02711
1.87302	-0.02743
1.91442	-0.02646
1.95581	-0.02437
2.00755	-0.02678
2.05929	-0.03017
2.09034	-0.02694
2.14208	-0.03049
2.20417	-0.02711
2.27660	-0.02759
2.35939	-0.02872
2.42148	-0.02276
2.46287	-0.02823
2.51461	-0.02775
2.56635	-0.02727
2.63879	-0.02791
2.70088	-0.02662
2.76297	-0.02952
2.82506	-0.02614
2.87680	-0.02727
2.93889	-0.02823
2.98028	-0.02694
3.02167	-0.02694
3.06307	-0.02517
3.10446	-0.02856
3.15620	-0.02485
3.21829	-0.03049
3.28038	-0.02582
3.32177	-0.03307
3.37351	-0.02404
3.42525	-0.02968
3.47699	-0.02485
3.53908	-0.02775
3.58048	-0.02566
3.62187	-0.02421
3.65291	-0.02727
3.67361	-0.02324
3.70465	-0.02904
3.74605	-0.02533
3.77709	-0.03049
3.81848	-0.02694
3.84953	-0.02469
3.88057	-0.02920
3.93231	-0.02920
3.98406	-0.02807
4.02545	-0.02839
4.06684	-0.02743
4.10823	-0.02614
4.14963	-0.02549
4.19102	-0.02582
4.23241	-0.02646
4.28415	-0.02872
4.32555	-0.02292
4.36694	-0.02469
4.40833	-0.02791
4.46007	-0.02694
4.51181	-0.02694
4.56355	-0.03065
4.60495	-0.02598
4.66704	-0.02469
4.71878	-0.03001
4.77052	-0.02549
4.81191	-0.02388
4.85330	-0.02759
4.88435	-0.02582
4.92574	-0.02469
4.97748	-0.02952
5.01888	-0.02582
5.06027	-0.02356
5.11201	-0.02566
5.15340	-0.02791
5.20514	-0.02727
5.25688	-0.02646
5.29828	-0.02711
5.33967	-0.02823
5.38106	-0.02404
5.41211	-0.02662
5.44315	-0.02404
5.47420	-0.02872
5.50524	-0.02823
5.53628	-0.02646
5.57768	-0.02356
5.61907	-0.02372
5.66046	-0.02549
5.70186	-0.02694
5.75360	-0.02340
5.79499	-0.02646
5.83638	-0.02598
5.87778	-0.02549
5.90882	-0.02549
5.93986	-0.02694
5.97091	-0.02984
6.00195	-0.03097
6.03300	-0.02630
6.05369	-0.03210
6.08474	-0.02872
6.11578	-0.02453
6.13648	-0.02888
6.16752	-0.02807
6.19857	-0.02485
6.22961	-0.02404
6.26066	-0.02566
6.30205	-0.02775
6.33310	-0.02646
6.36414	-0.02453
6.40553	-0.02614
6.44693	-0.02662
6.48832	-0.02566
6.52971	-0.02404
6.56076	-0.02485
6.59180	-0.02453
6.62285	-0.02501
6.66424	-0.02936
6.70563	-0.02775
6.74702	-0.02582
6.78842	-0.02598
6.84016	-0.02759
6.89190	-0.02566
6.95399	-0.02727
7.00573	-0.02630
7.05747	-0.02759
7.12991	-0.03017
7.20234	-0.02549
7.26443	-0.02759
7.33687	-0.02791
7.40931	-0.02598
7.47140	-0.02952
7.53349	-0.03017
7.59558	-0.02727
7.65767	-0.02308
7.70941	-0.02517
7.74045	-0.02582
7.78184	-0.02421
7.81289	-0.02340
7.85428	-0.02356
7.89567	-0.02517
7.93707	-0.02549
7.96811	-0.02485
7.98881	-0.02759
8.03020	-0.02115
8.07159	-0.02404
8.11299	-0.02549
8.15438	-0.02308
8.20612	-0.02759
8.24751	-0.02421
8.29925	-0.02356
8.34065	-0.02759
8.37169	-0.02662
8.40274	-0.02501
8.42343	-0.02517
8.45448	-0.02839
8.49587	-0.02775
8.53726	-0.02308
8.56831	-0.02662
8.59935	-0.02292
8.63040	-0.02678
8.67179	-0.02324
8.71318	-0.02453
8.76492	-0.02421
8.82701	-0.02598
8.88910	-0.02533
8.96154	-0.02566
9.04432	-0.02469
9.11676	-0.02678
9.19955	-0.02340
9.27198	-0.02421
9.33407	-0.02324
9.41686	-0.02469
9.47895	-0.02437
9.56173	-0.02598
9.61347	-0.02469
9.67556	-0.02566
9.72730	-0.02582
9.77905	-0.02469
9.82044	-0.02598
9.86183	-0.03081
9.91357	-0.02743
9.95496	-0.02856
10.00671	-0.02807
10.05845	-0.02549
10.11019	-0.02501
10.16193	-0.02453
10.22402	-0.02227
10.27576	-0.02179
10.32750	-0.03081
10.37924	-0.02404
10.42063	-0.02582
10.46203	-0.02485
10.49307	-0.02952
10.53446	-0.02372
10.56551	-0.02791
10.59655	-0.02308
10.62760	-0.02888
10.65864	-0.02453
10.68969	-0.02517
10.72073	-0.02839
10.75178	-0.02501
10.77247	-0.02904
10.80352	-0.02404
10.82421	-0.02856
10.85526	-0.02582
10.88630	-0.02276
10.91735	-0.02340
10.95874	-0.02566
10.98978	-0.02421
11.03118	-0.02179
11.06222	-0.02179
11.10361	-0.02485
11.13466	-0.01986
11.17605	-0.02179
11.20710	-0.02678
11.23814	-0.02131
11.26919	-0.02775
11.28988	-0.02453
11.32093	-0.02549
11.35197	-0.02549
11.38302	-0.02437
11.40371	-0.02614
11.43476	-0.02115
11.46580	-0.01792
11.49685	-0.02034
11.55894	-0.02421
11.60033	-0.02276
11.64172	-0.02050
11.69346	-0.02163
11.74520	-0.01889
11.79694	-0.02082
11.84868	-0.02115
11.90043	-0.02034
11.96251	-0.01937
12.01426	-0.02517
12.05565	-0.02066
12.09704	-0.02147
12.14878	-0.01857
12.19018	-0.02034
12.23157	-0.01986
12.27296	-0.01567
12.31435	-0.01486
12.35575	-0.01760
12.40749	-0.01518
12.43853	-0.01696
12.47992	-0.01180
12.51097	-0.01454
12.57306	-0.01293
12.60410	-0.01293
12.64550	-0.01019
12.67654	-0.01035
12.71793	-0.00761
12.75933	-0.00729
12.81107	-0.00681
12.84211	-0.00568
12.90420	-0.00423
12.95594	0.00044
13.01803	-0.00326
13.05942	0.00109
13.10082	-0.00020
13.13186	0.00592
13.17325	0.00672
13.21465	0.01091
13.26639	0.01349
13.31813	0.01687
13.36987	0.02074
13.41126	0.01736
13.46300	0.02670
13.50440	0.02928
13.55614	0.02992
13.58718	0.03202
13.61823	0.03798
13.64927	0.04362
13.69066	0.04700
13.72171	0.05183
13.74240	0.05232
13.77345	0.05715
13.79415	0.05844
13.81484	0.06118
13.83554	0.06166
13.85623	0.06263
13.87693	0.07036
13.90798	0.07165
13.94937	0.06923
13.97006	0.07745
14.00111	0.08019
14.02181	0.08373
14.04250	0.08099
14.06320	0.08695
14.08389	0.08727
14.11494	0.09050
14.13564	0.09130
14.16668	0.09388
14.17703	0.10048
14.20807	0.09871
14.23912	0.10435
14.25981	0.10854
14.28051	0.10516
14.31156	0.10902
14.33225	0.11514
14.35295	0.10999
14.39434	0.11611
14.43573	0.11402
14.47713	0.11692
14.51852	0.12400
14.54956	0.12545
14.61165	0.12304
14.66339	0.12223
14.69444	0.12336
14.73583	0.12723
14.76688	0.12384
14.79792	0.12739
14.82897	0.12803
14.87036	0.12368
14.90140	0.12449
14.94280	0.12529
14.97384	0.12803
15.01523	0.12497
15.05663	0.12239
15.09802	0.12062
15.12906	0.11885
15.17046	0.12207
15.20150	0.11772
15.23254	0.11595
15.26359	0.11015
15.29463	0.10983
15.32568	0.10757
15.34637	0.10499
15.37742	0.10322
15.39812	0.10145
15.42916	0.09549
15.46020	0.09726
15.49125	0.09613
15.52229	0.09372
15.55334	0.09066
15.58438	0.08373
15.61543	0.08582
15.63612	0.08453
15.66717	0.08212
15.69821	0.07503
15.72926	0.07793
15.77065	0.07406
15.80170	0.06794
15.82239	0.06472
15.84309	0.06488
15.87413	0.06150
15.89483	0.06327
15.92587	0.05409
15.95692	0.05586
15.98796	0.05360
16.01901	0.04829
16.06040	0.04780
16.09144	0.04152
16.13284	0.04410
16.16388	0.03991
16.19493	0.03669
16.22597	0.03524
16.25702	0.03363
16.28806	0.02718
16.31911	0.02702
16.35015	0.02606
16.38119	0.02203
16.40189	0.02171
16.42259	0.01832
16.44328	0.01736
16.46398	0.02171
16.48468	0.01236
16.49502	0.01349
16.51572	0.01091
16.53642	0.00495
16.55711	0.01317
16.57781	0.00737
16.60885	0.00656
16.63990	0.00640
16.67094	0.00221
16.70199	0.00383
16.73303	0.00399
16.76408	-0.00020
16.79512	0.00238
16.82617	-0.00133
16.85721	-0.00165
16.87791	-0.00810
16.90895	-0.00342
16.92965	-0.01003
16.96069	-0.00729
16.97104	-0.00745
16.99174	-0.00794
17.01243	-0.01132
17.03313	-0.01116
17.05383	-0.00906
17.06418	-0.01373
17.08487	-0.00987
17.10557	-0.01502
17.11592	-0.01728
17.13661	-0.01454
17.16766	-0.01325
17.18835	-0.01067
17.21940	-0.01841
17.24009	-0.01438
17.26079	-0.01905
17.28149	-0.01905
17.30218	-0.01535
17.31253	-0.01696
17.33323	-0.01631
17.34358	-0.01438
17.36427	-0.01921
17.37462	-0.01390
17.39532	-0.01986
17.40567	-0.01599
17.42636	-0.01792
17.44706	-0.02131
17.47810	-0.02211
17.49880	-0.01970
17.51950	-0.01631
17.54019	-0.02002
17.56089	-0.01454
17.57124	-0.01953
17.59193	-0.02034
17.61263	-0.01518
17.64367	-0.02356
17.67472	-0.01937
17.69542	-0.02115
17.72646	-0.02115
17.75750	-0.01599
17.78855	-0.02437
17.81959	-0.02292
17.85064	-0.02421
17.87133	-0.02098
17.88168	-0.02259
17.90238	-0.02098
17.92308	-0.02082
17.94377	-0.02340
17.97482	-0.02115
17.99551	-0.02195
18.02656	-0.02082
18.04725	-0.02292
18.07830	-0.02163
18.09899	-0.02195
18.10934	-0.02372
18.13004	-0.02115
18.14039	-0.01937
18.15074	-0.02227
18.16108	-0.02791
18.17143	-0.01857
18.18178	-0.02179
18.19213	-0.01728
18.19213	-0.02356
18.20248	-0.02372
18.21283	-0.01905
18.21283	-0.01744
18.22317	-0.02211
18.23352	-0.02292
18.25422	-0.01825
18.26457	-0.02066
18.28526	-0.02227
18.30596	-0.02131
18.32666	-0.02147
18.34735	-0.02050
18.35770	-0.01953
18.37840	-0.01744
18.39909	-0.02115
18.40944	-0.02243
18.41979	-0.01921
18.43014	-0.02163
18.45083	-0.02195
18.46118	-0.02179
18.48188	-0.01970
18.50257	-0.01728
18.52327	-0.02163
18.53362	-0.02227
18.54397	-0.02098
18.55432	-0.02050
18.56466	-0.02211
18.58536	-0.02211
18.59571	-0.01905
18.62675	-0.02388
18.65780	-0.02227
18.67849	-0.02582
18.70954	-0.02404
18.73023	-0.02437
18.75093	-0.02211
18.78198	-0.02098
18.80267	-0.02050
18.82337	-0.02292
18.84407	-0.01921
18.87511	-0.02469
18.90615	-0.02179
18.93720	-0.02324
18.95790	-0.01712
18.98894	-0.02066
19.01998	-0.02437
19.06138	-0.02549
19.09242	-0.01873
19.12347	-0.02163
19.14416	-0.01953
19.17521	-0.02163
19.20625	-0.02211
19.23730	-0.02179
19.26834	-0.02147
19.29939	-0.02276
19.33043	-0.02340
19.36147	-0.02356
19.38217	-0.02131
19.40287	-0.02259
19.42356	-0.02018
19.44426	-0.02549
19.47531	-0.02147
19.48565	-0.01873
19.50635	-0.02276
19.51670	-0.02356
19.53739	-0.02501
19.55809	-0.02227
19.57879	-0.02276
19.59948	-0.02276
19.63053	-0.01953
19.65122	-0.02179
19.69262	-0.02211
19.71331	-0.02259
19.74436	-0.02098
19.76505	-0.02034
19.79610	-0.02098
19.82714	-0.02195
19.85819	-0.02147
19.88923	-0.02147
19.92028	-0.02340
19.94097	-0.02324
19.97202	-0.02372
20.00306	-0.02388
20.03411	-0.02163
20.06515	-0.02002
20.08585	-0.02195
20.11689	-0.02098
20.14794	-0.02340
20.17898	-0.02179
20.21003	-0.01728
20.24107	-0.02421
20.28246	-0.02501
20.31351	-0.02276
20.34455	-0.02195
20.36525	-0.02098
20.37560	-0.02115
20.39629	-0.02485
20.42734	-0.01744
20.44804	-0.02131
20.46873	-0.02195
20.48943	-0.01760
20.52047	-0.02501
20.56187	-0.02533
20.59291	-0.02098
20.61361	-0.02066
20.63430	-0.02501
20.66535	-0.02163
20.69639	-0.01970
20.73778	-0.01615
20.77918	-0.02066
20.81022	-0.01808
20.84127	-0.02034
20.88266	-0.02276
20.92405	-0.02292
20.95510	-0.02308
20.97579	-0.02404
21.00684	-0.02098
21.03788	-0.02002
21.07928	-0.01825
21.12067	-0.01921
21.16206	-0.02066
21.20345	-0.02018
21.24485	-0.01937
21.27589	-0.02179
21.31728	-0.02115
21.35868	-0.02356
21.38972	-0.01937
21.42077	-0.02034
21.44146	-0.02082
21.45181	-0.02404
21.47251	-0.02195
21.50355	-0.02356
21.51390	-0.02115
21.53460	-0.02098
21.54494	-0.01776
21.56564	-0.01760
21.58634	-0.02324
21.61738	-0.01921
21.64843	-0.01905
21.66912	-0.02533
21.68982	-0.02147
21.72086	-0.01889
21.74156	-0.02195
21.76226	-0.02179
21.79330	-0.02034
21.81400	-0.02115
21.83469	-0.01486
21.86574	-0.02243
21.88643	-0.02115
21.90713	-0.01696
21.92783	-0.02115
21.94852	-0.01712
21.96922	-0.02437
22.00026	-0.02050
22.04166	-0.02179
22.07270	-0.02404
22.10375	-0.01905
22.12444	-0.02421
22.14514	-0.01454
22.16584	-0.02034
22.18653	-0.01663
22.20723	-0.01953
22.22793	-0.01551
22.25897	-0.01889
22.27967	-0.02211
22.31071	-0.02066
22.34176	-0.02066
22.37280	-0.02002
22.39350	-0.01841
22.43489	-0.01921
22.45559	-0.01776
22.47628	-0.02050
22.49698	-0.02195
22.51767	-0.02308
22.54872	-0.01551
22.59011	-0.02243
22.62116	-0.01905
22.65220	-0.01808
22.67290	-0.02050
22.70394	-0.01647
22.73499	-0.01841
22.77638	-0.01454
22.80742	-0.01390
22.83847	-0.01970
22.86951	-0.01776
22.90056	-0.01970
22.94195	-0.02034
22.96265	-0.01921
23.00404	-0.01873
23.03508	-0.02034
23.07648	-0.01599
23.11787	-0.01970
23.14891	-0.01986
23.17996	-0.02066
23.21100	-0.01921
23.25240	-0.01293
23.28344	-0.02131
23.30414	-0.01712
23.33518	-0.02179
23.35588	-0.01841
23.37657	-0.01937
23.39727	-0.01841
23.40762	-0.02034
23.42832	-0.01970
23.43866	-0.02018
23.44901	-0.01889
23.45936	-0.01953
23.46971	-0.01841
23.48006	-0.01776
23.49041	-0.01953
23.50075	-0.01841
23.52145	-0.01631
23.54215	-0.01889
23.56284	-0.02115
23.59389	-0.02276
23.61458	-0.02163
23.63528	-0.01776
23.65598	-0.02421
23.67667	-0.02098
23.69737	-0.02211
23.71807	-0.02292
23.72841	-0.01873
23.73876	-0.01841
23.74911	-0.01615
23.76981	-0.01921
23.79050	-0.02018
23.81120	-0.01615
23.83190	-0.02018
23.85259	-0.01889
23.87329	-0.01953
23.90433	-0.01986
23.92503	-0.02131
23.96642	-0.02066
23.99747	-0.02276
24.03886	-0.01889
24.06990	-0.01551
24.09060	-0.01986
24.12165	-0.01857
24.14234	-0.01905
24.17339	-0.01647
24.19408	-0.02356
24.22513	-0.01825
24.25617	-0.02147
24.27687	-0.01792
24.30791	-0.01744
24.33896	-0.02276
24.37000	-0.02115
24.39070	-0.02147
24.42174	-0.02227
24.45279	-0.01986
24.49418	-0.01535
24.52522	-0.01712
24.55627	-0.01889
24.58731	-0.01712
24.60801	-0.01808
24.63905	-0.01905
24.67010	-0.02276
24.71149	-0.01953
24.75289	-0.02372
24.78393	-0.02018
24.82532	-0.02259
24.85637	-0.01889
24.89776	-0.02227
24.92880	-0.02002
24.94950	-0.01438
24.99089	-0.01970
25.02194	-0.02115
25.05298	-0.01970
25.07368	-0.01808
25.09438	-0.01889
25.11507	-0.02227
25.12542	-0.01615
25.14612	-0.01728
25.16681	-0.01486
25.18751	-0.01712
25.20821	-0.02066
25.23925	-0.02082
25.27029	-0.02195
25.30134	-0.02195
25.33238	-0.02098
25.35308	-0.01986
25.38413	-0.01583
25.41517	-0.01857
25.44621	-0.01680
25.47726	-0.02050
25.50830	-0.02002
25.53935	-0.01873
25.56004	-0.01647
25.57039	-0.01744
25.59109	-0.01599
25.60144	-0.01825
25.62213	-0.01663
25.63248	-0.01825
25.65318	-0.01873
25.67387	-0.01970
25.70492	-0.01454
25.73596	-0.01792
25.75666	-0.01905
25.77736	-0.02034
25.80840	-0.01776
25.82910	-0.01857
25.86014	-0.02276
25.89119	-0.02147
25.91188	-0.02115
25.93258	-0.01857
25.96362	-0.01422
25.98432	-0.01502
26.01537	-0.01841
26.03606	-0.01663
26.05676	-0.01776
26.06711	-0.01277
26.08780	-0.01261
26.11885	-0.01953
26.16024	-0.01744
26.19128	-0.01663
26.22233	-0.01599
26.25337	-0.01744
26.29477	-0.02147
26.33616	-0.01986
26.37755	-0.01744
26.41894	-0.01889
26.47069	-0.02018
26.50173	-0.01518
26.53277	-0.02082
26.56382	-0.01760
26.59486	-0.01970
26.62591	-0.01567
26.66730	-0.01937
26.69835	-0.02018
26.72939	-0.01583
26.76044	-0.01986
26.79148	-0.01470
26.83287	-0.01583
26.86392	-0.01373
26.89496	-0.01502
26.92601	-0.01567
26.96740	-0.01986
26.99844	-0.01728
27.03984	-0.01406
27.07088	-0.01454
27.11227	-0.01502
27.14332	-0.01873
27.18471	-0.01776
27.21576	-0.01986
27.25715	-0.01905
27.29854	-0.01889
27.32959	-0.01373
27.36063	-0.01712
27.39168	-0.01535
27.43307	-0.01905
27.45376	-0.01712
27.49516	-0.01663
27.51585	-0.01390
27.54690	-0.01776
27.57794	-0.01502
27.60899	-0.01841
27.62968	-0.01438
27.66073	-0.01841
27.69177	-0.01470
27.72282	-0.01454
27.74351	-0.01406
27.77456	-0.01776
27.80560	-0.01470
27.82630	-0.01776
27.84700	-0.01712
27.87804	-0.01680
27.90908	-0.01857
27.94013	-0.01792
27.97117	-0.01357
28.00222	-0.01535
28.02292	-0.01583
28.05396	-0.01905
28.08500	-0.01647
28.11605	-0.01245
28.14709	-0.01518
28.17814	-0.01567
28.21953	-0.01325
28.25058	-0.01486
28.28162	-0.01502
28.32301	-0.01083
28.34371	-0.01712
28.37475	-0.01245
28.39545	-0.01696
28.41615	-0.01422
28.43684	-0.01422
28.45754	-0.01680
28.46789	-0.01277
28.48858	-0.01373
28.50928	-0.01647
28.54032	-0.01760
28.56102	-0.01535
28.59207	-0.01792
28.62311	-0.01132
28.65416	-0.01325
28.67485	-0.01631
28.70590	-0.01599
28.74729	-0.01712
28.77833	-0.01663
28.81973	-0.01341
28.85077	-0.01518
28.88182	-0.01422
28.90251	-0.01776
28.93356	-0.01422
28.95425	-0.01712
28.97495	-0.01470
28.99565	-0.01486
29.01634	-0.01647
29.04739	-0.01518
29.06808	-0.01567
29.09913	-0.02259
29.11982	-0.01518
29.15087	-0.01599
29.18191	-0.01696
29.20261	-0.01728
29.23365	-0.01599
29.25435	-0.01390
29.27505	-0.01373
29.29574	-0.01567
29.31644	-0.01277
29.33714	-0.01164
29.35783	-0.01325
29.37853	-0.01502
29.39923	-0.01309
29.43027	-0.01212
29.45097	-0.01535
29.48201	-0.01357
29.50271	-0.01406
29.52340	-0.01341
29.55445	-0.01164
29.58549	-0.01712
29.61654	-0.01228
29.64758	-0.01357
29.67863	-0.01438
29.70967	-0.01454
29.74072	-0.01422
29.76141	-0.01196
29.79246	-0.01631
29.81315	-0.01567
29.84420	-0.01615
29.87524	-0.01164
29.91663	-0.01583
29.94768	-0.01438
29.98907	-0.01390
30.02012	-0.01502
30.05116	-0.01406
30.09255	-0.01164
30.13395	-0.01277
30.16499	-0.01309
30.18569	-0.01341
30.21673	-0.01502
30.24778	-0.01051
30.27882	-0.01438
30.30987	-0.01325
30.34091	-0.01180
30.36161	-0.01148
30.39265	-0.01663
30.42370	-0.01438
30.44439	-0.01808
30.46509	-0.01100
30.49613	-0.01663
30.52718	-0.01196
30.54787	-0.01406
30.56857	-0.01535
30.59962	-0.01196
30.62031	-0.01470
30.65136	-0.01567
30.67205	-0.01164
30.71345	-0.00971
30.73414	-0.01245
30.77554	-0.01212
30.79623	-0.01647
30.81693	-0.01019
30.84797	-0.01019
30.86867	-0.01132
30.88937	-0.01341
30.92041	-0.01309
30.94111	-0.01373
30.97215	-0.01341
30.99285	-0.02082
31.01354	-0.01937
31.04459	-0.01390
31.06528	-0.01373
31.09633	-0.01196
31.11703	-0.01518
31.13772	-0.01390
31.15842	-0.00810
31.17911	-0.01261
31.19981	-0.01390
31.22051	-0.01148
31.25155	-0.01357
31.27225	-0.01760
31.29295	-0.01309
31.31364	-0.01486
31.33434	-0.01293
31.35503	-0.01406
31.37573	-0.01470
31.39643	-0.01132
31.42747	-0.01406
31.45852	-0.01567
31.47921	-0.01245
31.51026	-0.01100
31.53095	-0.01373
31.56200	-0.01277
31.59304	-0.01486
31.61374	-0.01116
31.64478	-0.00922
31.66548	-0.01245
31.69652	-0.01454
31.71722	-0.01390
31.74827	-0.01309
31.77931	-0.01599
31.80001	-0.01615
31.83105	-0.01325
31.84140	-0.01744
31.86210	-0.01470
31.88279	-0.01551
31.89314	-0.01116
31.91384	-0.01470
31.94488	-0.01357
31.97593	-0.01277
32.00697	-0.01180
32.03802	-0.01486
32.05871	-0.01309
32.08976	-0.01647
32.13115	-0.01551
32.15185	-0.01132
32.18289	-0.01067
32.22428	-0.01792
32.25533	-0.01712
32.28637	-0.01808
32.32776	-0.01406
32.35881	-0.01406
32.38985	-0.01599
32.41055	-0.01164
32.44159	-0.01486
32.46229	-0.01293
32.48299	-0.01293
32.49334	-0.01164
32.51403	-0.01277
32.52438	-0.01631
32.54508	-0.01921
32.56577	-0.01502
32.58647	-0.01744
32.61751	-0.01631
32.63821	-0.01680
32.65891	-0.01647
32.68995	-0.01325
32.72100	-0.01825
32.75204	-0.01438
32.77274	-0.01567
32.79343	-0.01615
32.82448	-0.01631
32.85552	-0.01615
32.87622	-0.01390
32.89692	-0.01406
32.92796	-0.01599
32.95900	-0.01486
32.97970	-0.01341
33.01075	-0.01535
33.04179	-0.01663
33.08318	-0.01390
33.11423	-0.01019
33.15562	-0.01373
33.19701	-0.01551
33.22806	-0.01631
33.25910	-0.01551
33.29015	-0.01808
33.32119	-0.01599
33.36258	-0.01905
33.39363	-0.00955
33.41433	-0.01422
33.44537	-0.01599
33.47641	-0.01438
33.50746	-0.01438
33.54885	-0.01277
33.57990	-0.01228
33.61094	-0.01631
33.64199	-0.01502
33.67303	-0.01406
33.70407	-0.01728
33.74547	-0.01245
33.77651	-0.01454
33.81790	-0.01518
33.85930	-0.01535
33.89034	-0.01486
33.92139	-0.01631
33.95243	-0.01663
33.99382	-0.01406
34.02487	-0.01486
34.06626	-0.01776
34.09731	-0.01277
34.13870	-0.01486
34.18009	-0.01551
34.23183	-0.01357
34.26288	-0.01712
34.29392	-0.01873
34.31462	-0.01357
34.34566	-0.01438
34.37671	-0.01889
34.39740	-0.01148
34.42845	-0.01760
34.45949	-0.01470
34.50089	-0.01696
34.54228	-0.01825
34.59402	-0.01406
34.63541	-0.01663
34.68715	-0.01470
34.71820	-0.01615
34.75959	-0.01390
34.80098	-0.01953
34.83203	-0.01470
34.87342	-0.01535
34.91481	-0.01841
34.95621	-0.01663
34.98725	-0.01857
35.02864	-0.01438
35.05969	-0.01744
35.09073	-0.01873
35.12178	-0.01454
35.16317	-0.01631
35.19421	-0.01776
35.21491	-0.01631
35.25630	-0.01390
35.27700	-0.01680
35.29770	-0.01825
35.32874	-0.01486
35.35979	-0.01486
35.39083	-0.01438
35.42188	-0.01599
35.45292	-0.01696
35.48396	-0.01518
35.51501	-0.01728
35.55640	-0.01583
35.59779	-0.01663
35.63919	-0.01905
35.67023	-0.02066
35.71162	-0.01470
35.75302	-0.01760
35.78406	-0.01776
35.82545	-0.01647
35.87720	-0.01438
35.91859	-0.02147
35.94963	-0.01712
35.99103	-0.01986
36.02207	-0.01953
36.05312	-0.01647
36.09451	-0.02195
36.12555	-0.01180
36.14625	-0.01953
36.16695	-0.01567
36.19799	-0.01712
36.21869	-0.01970
36.24973	-0.01776
36.27043	-0.01357
36.30147	-0.01728
36.32217	-0.01567
36.35321	-0.01454
36.38426	-0.01599
36.42565	-0.01631
36.45669	-0.01696
36.47739	-0.01841
36.49809	-0.01808
36.52913	-0.01196
36.56018	-0.01970
36.59122	-0.01905
36.63261	-0.01535
36.65331	-0.01744
36.68436	-0.01663
36.70505	-0.01728
36.72575	-0.01696
36.75679	-0.01889
36.77749	-0.01631
36.79819	-0.01518
36.81888	-0.01792
36.84993	-0.01631
36.87062	-0.01390
36.89132	-0.01551
36.92236	-0.01647
36.95341	-0.01583
36.98445	-0.01518
37.01550	-0.01647
37.04654	-0.01921
37.06724	-0.01647
37.09828	-0.01728
37.10863	-0.01889
37.12933	-0.01422
37.15002	-0.01728
37.17072	-0.01808
37.19142	-0.01245
37.21211	-0.01470
37.24316	-0.01518
37.26385	-0.01792
37.29490	-0.01792
37.33629	-0.01470
37.35699	-0.01277
37.39838	-0.01921
37.43977	-0.01583
37.47082	-0.01357
37.50186	-0.01857
37.54326	-0.01599
37.57430	-0.01744
37.61569	-0.01535
37.65709	-0.01760
37.69848	-0.01841
37.72952	-0.01776
37.77092	-0.01825
37.81231	-0.01132
37.86405	-0.01792
37.89509	-0.01551
37.92614	-0.01744
37.95718	-0.01696
37.98823	-0.01825
38.00892	-0.01905
38.03997	-0.01583
38.08136	-0.01422
38.12275	-0.01373
38.16415	-0.01470
38.20554	-0.01551
38.25728	-0.01776
38.30902	-0.02018
38.35041	-0.01857
38.40216	-0.01535
38.45390	-0.01792
38.49529	-0.01986
38.55738	-0.01406
38.59877	-0.02050
38.65051	-0.01937
38.70225	-0.01808
38.75399	-0.01696
38.80574	-0.01486
38.85748	-0.01712
38.91957	-0.01857
38.97131	-0.01647
39.02305	-0.01551
39.06444	-0.01937
39.10583	-0.01615
39.13688	-0.01583
39.16792	-0.01905
39.19897	-0.01905
39.21966	-0.01970
39.24036	-0.01728
39.26106	-0.02082
39.29210	-0.01825
39.31280	-0.02066
39.33349	-0.02002
39.36454	-0.01970
39.39558	-0.01986
39.42663	-0.01728
39.46802	-0.01696
39.50941	-0.01647
39.55081	-0.02372
39.58185	-0.01422
39.61289	-0.01680
39.65429	-0.01647
39.68533	-0.01583
39.71638	-0.01953
39.74742	-0.02002
39.78881	-0.01873
39.81986	-0.01454
39.84055	-0.01744
39.88195	-0.02098
39.91299	-0.01615
39.94404	-0.01760
39.97508	-0.02002
40.01647	-0.01357
40.05787	-0.01792
40.08891	-0.01792
40.13030	-0.01728
40.16135	-0.01680
40.19239	-0.01663
40.23379	-0.01921
40.27518	-0.01808
40.31657	-0.01760
40.34762	-0.02356
40.37866	-0.01841
40.40971	-0.01792
40.42005	-0.01905
40.45110	-0.01583
40.47179	-0.01953
40.49249	-0.01953
40.51319	-0.01776
40.52354	-0.02098
40.53388	-0.01518
40.55458	-0.01680
40.56493	-0.02082
40.58563	-0.01873
40.60632	-0.01680
40.62702	-0.02018
40.65806	-0.01776
40.67876	-0.01825
40.70980	-0.01808
40.74085	-0.02002
40.77189	-0.01422
40.80294	-0.01889
40.84433	-0.01873
40.87537	-0.01953
40.91677	-0.02163
40.95816	-0.01518
40.99955	-0.01728
41.04095	-0.01937
41.08234	-0.01889
41.12373	-0.01728
41.15478	-0.01986
41.19617	-0.02131
41.22721	-0.01647
41.25826	-0.01728
41.28930	-0.01792
41.32035	-0.01663
41.35139	-0.01841
41.38244	-0.01760
41.41348	-0.01905
41.44453	-0.01728
41.48592	-0.01889
41.52731	-0.02098
41.55836	-0.01567
41.59975	-0.01808
41.63079	-0.01953
41.66184	-0.02082
41.70323	-0.02034
41.73427	-0.01792
41.76532	-0.01921
41.79636	-0.01776
41.81706	-0.02034
41.84811	-0.01567
41.88950	-0.02034
41.91019	-0.02163
41.94124	-0.02147
41.97228	-0.01825
41.99298	-0.02259
42.01368	-0.01970
42.03437	-0.01712
42.06542	-0.01841
42.08611	-0.01486
42.11716	-0.02195
42.14820	-0.01841
42.16890	-0.02211
42.19994	-0.01825
42.23099	-0.01986
42.27238	-0.02034
42.30343	-0.01986
42.33447	-0.02211
42.37586	-0.01744
42.40691	-0.01873
42.43795	-0.02179
42.46900	-0.02340
42.48969	-0.02243
42.52074	-0.01583
42.54143	-0.01663
42.57248	-0.01728
42.59318	-0.01599
42.62422	-0.02195
42.64492	-0.02066
42.66561	-0.01776
42.69666	-0.01825
42.72770	-0.02034
42.75875	-0.02018
42.80014	-0.01551
42.84153	-0.01953
42.87258	-0.01760
42.90362	-0.01792
42.94501	-0.02002
42.98641	-0.01857
43.02780	-0.02163
43.06919	-0.01905
43.10024	-0.02163
43.14163	-0.02082
43.18302	-0.01712
43.21407	-0.01857
43.24511	-0.02147
43.28650	-0.01792
43.31755	-0.01615
43.33825	-0.02179
43.36929	-0.01744
43.38999	-0.02034
43.41068	-0.02018
43.43138	-0.02018
43.45208	-0.02372
43.46242	-0.01937
43.49347	-0.02340
43.51416	-0.01744
43.54521	-0.02034
43.56591	-0.01889
43.58660	-0.02066
43.60730	-0.01953
43.63834	-0.02598
43.65904	-0.02243
43.67974	-0.01825
43.70043	-0.01825
43.73148	-0.02517
43.75217	-0.02211
43.77287	-0.02243
43.79357	-0.02388
43.81426	-0.01937
43.83496	-0.02034
43.86600	-0.02485
43.88670	-0.01792
43.91774	-0.01986
43.94879	-0.01792
43.96949	-0.01970
43.99018	-0.02018
44.02123	-0.01647
44.05227	-0.01905
44.09366	-0.01986
44.13506	-0.02050
44.18680	-0.01857
44.21784	-0.01792
44.25923	-0.02115
44.30063	-0.02050
44.36272	-0.02050
44.40411	-0.02018
44.44550	-0.01905
44.49724	-0.01937
44.54898	-0.02131
44.59038	-0.02018
44.63177	-0.02082
44.67316	-0.01937
44.71456	-0.01905
44.75595	-0.01873
44.78699	-0.02147
44.81804	-0.02179
44.85943	-0.02018
44.89047	-0.02034
44.93187	-0.01937
44.96291	-0.02372
44.98361	-0.01970
45.01465	-0.01406
45.03535	-0.02211
45.06639	-0.01937
45.10779	-0.02131
45.13883	-0.02259
45.16988	-0.02002
45.20092	-0.02211
45.23197	-0.02404
45.26301	-0.02163
45.29405	-0.01986
45.34580	-0.02082
45.38719	-0.01857
45.42858	-0.01937
45.46997	-0.01792
45.50102	-0.01905
45.53206	-0.02098
45.56311	-0.02372
45.60450	-0.02082
45.64589	-0.02115
45.69763	-0.02324
45.72868	-0.02227
45.77007	-0.02630
45.81146	-0.01921
45.85286	-0.01712
45.91495	-0.02243
45.95634	-0.02308
45.99773	-0.02050
46.03912	-0.02243
46.08052	-0.02437
46.11156	-0.02292
46.15295	-0.02259
46.19435	-0.02356
46.24609	-0.02163
46.29783	-0.02308
46.35992	-0.02292
46.41166	-0.02566
46.46340	-0.01905
46.52549	-0.02404
46.58758	-0.01937
46.63932	-0.02324
46.69106	-0.02227
46.74280	-0.02276
46.78419	-0.01535
46.83594	-0.02259
46.86698	-0.02066
46.90837	-0.01937
46.93942	-0.02002
46.97046	-0.01921
47.00151	-0.02598
47.04290	-0.01953
47.06360	-0.02179
47.09464	-0.02179
47.11534	-0.02098
47.12569	-0.02292
47.14638	-0.02421
47.16708	-0.01921
47.18777	-0.01792
47.21882	-0.02050
47.26021	-0.01647
47.29126	-0.01873
47.33265	-0.01841
47.36369	-0.02098
47.40509	-0.01937
47.43613	-0.01937
47.45683	-0.02372
47.48787	-0.02034
47.50857	-0.02147
47.53961	-0.01905
47.57066	-0.02276
47.59135	-0.01937
47.61205	-0.01921
47.64309	-0.02018
47.66379	-0.01986
47.68449	-0.01970
47.72588	-0.02404
47.75693	-0.02018
47.79832	-0.02469
47.83971	-0.02372
47.87076	-0.02163
47.91215	-0.02356
47.95354	-0.02195
47.99493	-0.02259
48.02598	-0.02179
48.06737	-0.02098
48.09842	-0.02372
48.13981	-0.02131
48.17085	-0.02404
48.20190	-0.01970
48.23294	-0.01776
48.27433	-0.01857
48.30538	-0.01905
48.34677	-0.02501
48.38816	-0.01921
48.43991	-0.02259
48.49165	-0.02179
48.54339	-0.02388
48.58478	-0.02018
48.62617	-0.01696
48.66757	-0.02163
48.71931	-0.01615
48.76070	-0.02179
48.81244	-0.02211
48.84349	-0.02098
48.88488	-0.02388
48.91592	-0.02292
48.94697	-0.02259
48.97801	-0.02372
49.00906	-0.01953
49.05045	-0.01937
49.08149	-0.01841
49.11254	-0.01712
49.13324	-0.02549
49.15393	-0.01970
49.18498	-0.02018
49.21602	-0.02179
49.24707	-0.01970
49.27811	-0.02340
49.30915	-0.02163
49.35055	-0.02098
49.39194	-0.02147
49.43333	-0.02163
49.47473	-0.01986
49.52647	-0.02115
49.56786	-0.02259
49.60925	-0.02308
49.66099	-0.01825
49.69204	-0.02050
49.74378	-0.02098
49.78517	-0.02034
49.82656	-0.01857
49.86796	-0.02388
49.90935	-0.02340
49.95074	-0.02501
49.98179	-0.01808
50.01283	-0.02501
50.05422	-0.01712
50.08527	-0.02211
50.11631	-0.01502
50.15771	-0.01986
50.18875	-0.02147
50.23014	-0.02421
50.26119	-0.01937
50.29223	-0.02292
50.33363	-0.01728
50.36467	-0.02340
50.39572	-0.02163
50.42676	-0.02372
50.45780	-0.02227
50.49920	-0.02259
50.55094	-0.01889
50.59233	-0.02195
50.64407	-0.02018
50.69581	-0.02195
50.74755	-0.02018
50.79929	-0.01680
50.84069	-0.02098
50.88208	-0.02163
50.92347	-0.02179
50.97521	-0.02388
51.01661	-0.01889
51.04765	-0.02340
51.08904	-0.02243
51.14079	-0.02018
51.18218	-0.02002
51.22357	-0.01808
51.27531	-0.01986
51.31670	-0.02308
51.35810	-0.01792
51.39949	-0.02131
51.44088	-0.02259
51.48228	-0.02179
51.53402	-0.02018
51.57541	-0.01953
51.61680	-0.02549
51.64785	-0.01873
51.69959	-0.02388
51.74098	-0.01937
51.77203	-0.02131
51.80307	-0.02050
51.83411	-0.02163
51.87551	-0.02082
51.90655	-0.02115
51.94794	-0.02002
51.98934	-0.01744
52.03073	-0.01825
52.07212	-0.01953
52.10317	-0.02002
52.14456	-0.02453
52.18595	-0.01921
52.23769	-0.01792
52.28943	-0.02259
52.34118	-0.02227
52.38257	-0.02050
52.43431	-0.02050
52.48605	-0.02356
52.52744	-0.01857
52.57918	-0.01776
52.62058	-0.02163
52.67232	-0.02147
52.72406	-0.01808
52.77580	-0.01986
52.82754	-0.02131
52.86893	-0.02131
52.91033	-0.02163
52.94137	-0.02179
52.97242	-0.01937
53.01381	-0.02034
53.03451	-0.02131
53.06555	-0.01712
53.10694	-0.02195
53.14834	-0.02163
53.17938	-0.02404
53.21042	-0.01937
53.25182	-0.02018
53.29321	-0.02308
53.32425	-0.02131
53.36565	-0.02050
53.40704	-0.02421
53.44843	-0.02098
53.48983	-0.02082
53.54157	-0.01953
53.59331	-0.02308
53.64505	-0.02163
53.68644	-0.02404
53.72783	-0.01712
53.75888	-0.01937
53.78992	-0.02421
53.82097	-0.02211
53.85201	-0.02147
53.88306	-0.01986
53.91410	-0.01889
53.94515	-0.02324
53.97619	-0.02050
54.01758	-0.01567
54.04863	-0.01857
54.09002	-0.01937
54.12107	-0.02195
54.16246	-0.02034
54.18315	-0.01825
54.21420	-0.01986
54.24524	-0.02082
54.27629	-0.01857
54.30733	-0.02131
54.32803	-0.02147
54.34873	-0.02050
54.36942	-0.01937
54.37977	-0.02018
54.40047	-0.01873
54.42116	-0.01470
54.44186	-0.01986
54.46256	-0.01857
54.48325	-0.02211
54.49360	-0.02163
54.51430	-0.01921
54.54534	-0.01937
54.56604	-0.02356
54.58673	-0.01921
54.61778	-0.01873
54.64882	-0.01792
54.66952	-0.01986
54.70056	-0.02259
54.73161	-0.02308
54.75231	-0.02179
54.78335	-0.02211
54.80405	-0.02211
54.83509	-0.02082
54.85579	-0.01905
54.88683	-0.01841
54.91788	-0.01970
54.94892	-0.02163
54.97997	-0.02131
55.01101	-0.02259
55.04206	-0.02292
55.07310	-0.01744
55.11449	-0.02211
55.14554	-0.01841
55.17658	-0.02276
55.22832	-0.02115
55.25937	-0.02098
55.30076	-0.02356
55.34215	-0.02002
55.37320	-0.01696
55.41459	-0.02034
55.45598	-0.01825
55.49738	-0.01567
55.53877	-0.01792
55.56981	-0.01680
55.60086	-0.02340
55.64225	-0.01953
55.67330	-0.01873
55.71469	-0.02018
55.75608	-0.01502
55.78713	-0.01518
55.82852	-0.01502
55.86991	-0.01873
55.91130	-0.01921
55.97339	-0.01663
56.02513	-0.02034
56.08722	-0.01937
56.13896	-0.02147
56.19070	-0.02259
56.25279	-0.01953
56.29419	-0.02115
56.34593	-0.01760
56.39767	-0.01986
56.43906	-0.01390
56.49080	-0.02115
56.53220	-0.01792
56.57359	-0.01921
56.61498	-0.02292
56.66672	-0.01889
56.70811	-0.01518
56.74951	-0.01921
56.77020	-0.01776
56.79090	-0.01615
56.83229	-0.02195
56.86334	-0.01470
56.89438	-0.02098
56.92543	-0.01776
56.95647	-0.01712
56.98752	-0.02002
57.00821	-0.01760
57.02891	-0.01696
57.04961	-0.01438
57.08065	-0.01970
57.11169	-0.01728
57.14274	-0.01792
57.17378	-0.01921
57.20483	-0.02308
57.23587	-0.01696
57.26692	-0.02179
57.29796	-0.01583
57.33935	-0.01599
57.38075	-0.01857
57.41179	-0.01937
57.45318	-0.02211
57.48423	-0.01615
57.52562	-0.01760
57.57736	-0.02018
57.61876	-0.02050
57.66015	-0.02243
57.70154	-0.01696
57.74293	-0.02276
57.77398	-0.02163
57.81537	-0.01776
57.84642	-0.02018
57.87746	-0.01905
57.90851	-0.02195
57.93955	-0.01970
57.97059	-0.01953
58.00164	-0.01760
58.03268	-0.01937
58.06373	-0.02115
58.09477	-0.01535
58.12582	-0.01728
58.16721	-0.01583
58.19825	-0.01841
58.23965	-0.01728
58.27069	-0.01406
58.32243	-0.01937
58.36383	-0.02018
58.41557	-0.01551
58.45696	-0.02018
58.49835	-0.01986
58.51905	-0.01535
58.55009	-0.02018
58.57079	-0.01631
58.60183	-0.01728
58.62253	-0.01583
58.65358	-0.01712
58.67427	-0.01792
58.69497	-0.01631
58.71566	-0.01228
58.74671	-0.01953
58.76741	-0.01712
58.78810	-0.01905
58.80880	-0.01841
58.81915	-0.01696
58.83984	-0.02018
58.85019	-0.02163
58.86054	-0.01792
58.88124	-0.01535
58.90193	-0.01970
58.92263	-0.02002
58.94332	-0.01760
58.96402	-0.01792
58.98472	-0.01792
59.01576	-0.01744
59.04681	-0.01599
59.08820	-0.01502
59.12959	-0.01680
59.16064	-0.01615
59.18133	-0.01776
59.21238	-0.01518
59.23307	-0.01680
59.26412	-0.01760
59.28482	-0.01905
59.30551	-0.01841
59.33656	-0.01986
59.36760	-0.01986
59.40899	-0.01905
59.42969	-0.01486
59.47108	-0.01744
59.50213	-0.01551
59.53317	-0.01792
59.57456	-0.01438
59.60561	-0.02018
59.64700	-0.01841
59.68840	-0.02066
59.72979	-0.01921
59.77118	-0.01680
59.80223	-0.01647
59.85397	-0.01953
59.88501	-0.01825
59.92640	-0.01825
59.97814	-0.01680
60.01954	-0.01390
60.06093	-0.01696
60.10232	-0.01422
60.13337	-0.01889
60.16441	-0.01808
60.20580	-0.01583
60.24720	-0.01760
60.28859	-0.01921
60.32998	-0.01825
60.37138	-0.01712
60.40242	-0.01905
60.43347	-0.01808
60.45416	-0.01535
60.48521	-0.01406
60.50590	-0.01841
60.52660	-0.01792
60.55764	-0.01744
60.59904	-0.01696
60.65078	-0.01390
60.69217	-0.01808
60.73356	-0.01373
60.76461	-0.01325
60.80600	-0.01309
60.84739	-0.01663
60.88879	-0.01776
60.94053	-0.02115
60.99227	-0.01712
61.05436	-0.02018
61.10610	-0.01953
61.16819	-0.02082
61.23028	-0.01390
61.29237	-0.01502
61.35445	-0.01551
61.41654	-0.01567
61.47863	-0.01921
61.55107	-0.01808
61.61316	-0.01164
61.66490	-0.01599
61.71664	-0.01438
61.74769	-0.01518
61.78908	-0.01454
61.83047	-0.01535
61.87186	-0.01277
61.93395	-0.01680
61.98569	-0.01180
62.02709	-0.01438
62.06848	-0.01712
62.10987	-0.01470
62.14092	-0.01599
62.19266	-0.01776
62.23405	-0.01663
62.28579	-0.01696
62.32719	-0.01535
62.35823	-0.01535
62.38927	-0.01535
62.40997	-0.01180
62.43067	-0.01373
62.46171	-0.01760
62.48241	-0.01486
62.49276	-0.01373
62.49276	-0.01470
62.50310	-0.01454
62.50310	-0.01502
62.51345	-0.01422
62.51345	-0.01792
62.51345	-0.01680
62.52380	-0.01341
62.53415	-0.01502
62.55485	-0.01808
62.60659	-0.01615
62.67902	-0.01309
62.74111	-0.02018
62.79285	-0.01518
62.83425	-0.01341
62.86529	-0.01615
62.89634	-0.01373
62.91703	-0.01309
62.92738	-0.01518
62.93773	-0.01921
62.95843	-0.01792
62.97912	-0.01051
62.99982	-0.01631
63.01017	-0.01470
63.03086	-0.01486
63.05156	-0.01663
63.07226	-0.01035
63.09295	-0.01647
63.12400	-0.01083
63.15504	-0.01277
63.18609	-0.01132
63.21713	-0.01631
63.25852	-0.01792
63.27922	-0.02002
63.31026	-0.01486
63.33096	-0.01599
63.36200	-0.01067
63.39305	-0.01567
63.41375	-0.01518
63.44479	-0.01841
63.46549	-0.01680
63.47583	-0.01615
63.49653	-0.01341
63.51723	-0.01680
63.53792	-0.00729
63.55862	-0.01051
63.57932	-0.01438
63.60001	-0.01148
63.63106	-0.00632
63.66210	-0.01261
63.69315	-0.01390
63.72419	-0.00842
63.75524	-0.01132
63.77593	-0.00938
63.79663	-0.01486
63.81733	-0.01196
63.84837	-0.01293
63.86907	-0.01422
63.88976	-0.00971
63.92081	-0.00987
63.96220	-0.01647
64.00359	-0.00938
64.04499	-0.01019
64.09673	-0.00842
64.13812	-0.01373
64.18986	-0.01325
64.24160	-0.01100
64.29334	-0.00842
64.33474	-0.00713
64.37613	-0.01100
64.42787	-0.00713
64.45891	-0.01647
64.51065	-0.01164
64.56240	-0.01196
64.60379	-0.01422
64.64518	-0.01212
64.68657	-0.01019
64.71762	-0.01228
64.75901	-0.01132
64.80040	-0.01051
64.83145	-0.01293
64.87284	-0.01293
64.90389	-0.01357
64.94528	-0.01083
64.98667	-0.01003
65.02806	-0.01132
65.06946	-0.01228
65.12120	-0.00713
65.17294	-0.01019
65.22468	-0.01164
65.28677	-0.01277
65.32816	-0.01083
65.37990	-0.01567
65.42130	-0.00777
65.46269	-0.01083
65.51443	-0.01309
65.55582	-0.01277
65.59722	-0.01019
65.63861	-0.00649
65.68000	-0.00391
65.71105	-0.00504
65.74209	-0.01212
65.77313	-0.01035
65.80418	-0.00906
65.83522	-0.00858
65.86627	-0.00536
65.89731	-0.00826
65.92836	-0.00616
65.95940	-0.00777
65.98010	-0.00713
66.01114	-0.01100
66.04219	-0.01100
66.08358	-0.00810
66.10428	-0.00955
66.14567	-0.00665
66.17671	-0.00504
66.20776	-0.01083
66.24915	-0.01422
66.29054	-0.01051
66.33194	-0.00761
66.37333	-0.00681
66.40437	-0.00600
66.43542	-0.00649
66.46646	-0.00971
66.50786	-0.00794
66.54925	-0.00713
66.59064	-0.00407
66.64238	-0.00761
66.68378	-0.00938
66.73552	-0.00713
66.77691	-0.00938
66.82865	-0.00600
66.87004	-0.00729
66.91144	-0.01164
66.95283	-0.01100
66.99422	-0.00777
67.02527	-0.00971
67.05631	-0.01164
67.08736	-0.00777
67.12875	-0.00826
67.17014	-0.00697
67.20119	-0.00665
67.25293	-0.01019
67.28397	-0.00262
67.32536	-0.00761
67.35641	-0.00665
67.39780	-0.00552
67.42885	-0.00584
67.47024	-0.00504
67.51163	-0.00922
67.55302	-0.00423
67.59442	-0.00810
67.62546	-0.00085
67.64616	-0.00697
67.67720	-0.00971
67.69790	-0.00504
67.71860	-0.00342
67.73929	-0.00423
67.75999	-0.00165
67.78068	-0.00552
67.80138	-0.00810
67.82208	-0.00536
67.85312	-0.00858
67.89451	-0.00665
67.93591	-0.00584
67.97730	-0.00713
68.01869	-0.00810
68.07043	-0.00632
68.11183	-0.00600
68.15322	-0.00455
68.19461	-0.01003
68.23601	-0.00906
68.27740	-0.01067
68.31879	-0.00729
68.36018	-0.00487
68.40158	-0.00906
68.45332	-0.00906
68.50506	-0.00938
68.54645	-0.00858
68.58784	-0.00681
68.62924	-0.00536
68.66028	-0.00713
68.69133	-0.00423
68.71202	-0.00713
68.74307	-0.00584
68.76376	-0.00649
68.78446	-0.00294
68.80516	-0.00584
68.83620	-0.00745
68.85690	-0.00600
68.87759	-0.00794
68.88794	-0.00552
68.89829	-0.00568
68.90864	-0.00600
68.91899	-0.00552
68.92933	-0.00649
68.92933	-0.00568
68.95003	-0.00552
68.96038	-0.01148
68.97073	-0.00729
69.00177	-0.00326
69.04316	-0.00536
69.09491	-0.00745
69.14665	-0.00294
69.20874	-0.00552
69.25013	-0.00536
69.29152	-0.00504
69.32257	-0.00584
69.36396	-0.00423
69.39500	-0.00020
69.42605	-0.00423
69.44674	-0.00359
69.46744	-0.00584
69.49849	-0.00391
69.51918	-0.00326
69.53988	-0.00971
69.55023	-0.00278
69.57092	-0.00181
69.60197	-0.00342
69.65371	-0.00294
69.70545	-0.00133
69.74684	-0.00729
69.78823	-0.00568
69.82963	-0.00375
69.87102	-0.00520
69.92276	-0.00069
69.96415	-0.00713
70.00555	-0.00262
70.04694	-0.00616
70.07798	-0.00584
70.10903	-0.00632
70.14007	-0.00391
70.16077	-0.00826
70.18147	-0.00729
70.19181	-0.00197
70.21251	-0.00439
70.23321	-0.00890
70.24356	-0.00407
70.25390	-0.00326
70.26425	-0.00794
70.28495	-0.00810
70.30564	-0.00439
70.32634	-0.00423
70.34704	-0.00777
70.37808	-0.00246
70.39878	-0.00407
70.42982	-0.00552
70.47122	-0.00520
70.52296	-0.00520
70.56435	-0.00294
70.59539	-0.00326
70.63679	-0.00294
70.66783	-0.00375
70.69888	-0.00052
70.72992	-0.00149
70.76096	-0.00036
70.78166	-0.00874
70.82305	-0.00052
70.85410	-0.00310
70.88514	-0.00246
70.91619	-0.00471
70.93688	-0.00342
70.96793	-0.00375
70.99897	-0.00246
71.01967	-0.00230
71.05071	-0.00004
71.08176	-0.00520
71.12315	0.00463
71.18524	-0.00133
71.23698	0.00189
71.27837	0.00109
71.31977	0.00044
71.36116	-0.00133
71.42325	-0.00004
71.48534	-0.00004
71.53708	0.00189
71.57847	0.00109
71.61987	0.00366
71.65091	0.00769
71.68195	0.00705
71.70265	0.00544
71.72335	0.00383
71.75439	0.00850
71.78544	0.01043
71.80613	0.00495
71.82683	0.00350
71.83718	0.01124
71.85787	0.00785
71.86822	0.00511
71.89927	0.00882
71.91996	0.00979
71.95101	0.00624
71.98205	0.01107
72.03379	0.00930
72.09588	0.00753
72.17867	0.01188
72.26145	0.00930
72.36494	0.00737
72.46842	0.01124
72.54085	0.00850
72.60294	0.01172
72.64434	0.00898
72.68573	0.00914
72.72712	0.00962
72.77886	0.00946
72.82026	0.00302
72.86165	0.00173
72.89269	0.00366
72.92374	0.00286
72.94443	0.00383
72.97548	0.00157
72.99618	0.00238
73.01687	0.00286
73.03757	0.00173
73.06861	0.00060
73.08931	0.00125
73.12035	-0.00052
73.15140	0.00334
73.18244	-0.00197
73.21349	0.00028
73.24453	0.00093
73.27558	0.00173
73.30662	0.00189
73.32732	0.00157
73.36871	-0.00101
73.39975	0.00254
73.43080	0.00431
73.47219	0.00173
73.51359	0.00044
73.56533	-0.00069
73.61707	0.00028
73.66881	0.00447
73.71020	0.00415
73.73090	-0.00149
73.75159	0.00093
73.78264	-0.00133
73.83438	0.00366
73.86542	0.00221
73.90682	0.00093
73.94821	-0.00407
73.98960	-0.00020
74.03099	0.00157
74.07239	0.00028
74.11378	-0.00036
74.15517	-0.00230
74.19657	0.00254
74.22761	0.00109
74.24831	0.00076
74.26900	0.00495
74.28970	0.00254
74.30005	0.00028
74.31040	0.00093
74.33109	0.00012
74.34144	-0.00294
74.35179	0.00093
74.36214	-0.00101
74.37249	0.00093
74.39318	0.00028
74.41388	-0.00036
74.44492	-0.00214
74.48632	-0.00294
74.52771	0.00012
74.56910	0.00221
74.61049	0.00173
74.65189	0.00254
74.69328	0.00318
74.74502	0.00415
74.79676	0.00076
74.84850	0.00350
74.88990	0.00221
74.94164	0.00270
74.98303	-0.00036
75.03477	0.00399
75.07616	0.00076
75.12790	-0.00085
75.17964	0.00447
75.22104	0.00238
75.26243	0.00399
75.30382	0.00189
75.34522	0.00656
75.38661	0.00189
75.42800	0.00109
75.45905	0.00383
75.51079	0.00286
75.55218	0.00624
75.59357	0.00093
75.63497	0.00270
75.66601	0.00076
75.69705	-0.00117
75.72810	0.00415
75.75914	0.00511
75.79019	0.00044
75.81088	0.00511
75.84193	0.00479
75.87297	0.00286
75.88332	0.00415
75.90402	0.00044
75.92471	0.00366
75.96611	-0.00197
76.01785	0.00254
76.10063	0.00254
76.18342	0.00383
76.25586	0.00157
76.32829	0.00544
76.39038	0.00221
76.44212	0.00238
76.49387	0.00028
76.54561	0.00254
76.57665	0.00028
76.61804	-0.00036
76.65944	0.00318
76.69048	0.00399
76.72153	0.00238
76.75257	0.00125
76.78362	0.00527
76.81466	0.00383
76.85605	0.00350
76.90779	0.00270
76.96988	0.00254
77.05267	0.00189
77.12511	0.00205
77.20789	0.00463
77.29068	0.00141
77.34242	0.00560
77.40451	0.00270
77.44590	0.00350
77.47694	0.00463
77.51834	0.00753
77.54938	0.00366
77.59077	0.00640
77.63217	0.00431
77.67356	0.00511
77.72530	0.00753
77.78739	0.00221
77.85983	0.00383
77.92192	0.00511
77.98401	0.00447
78.05644	0.00560
78.12888	0.00640
78.20132	0.00689
78.27376	0.00270
78.35654	0.00656
78.44967	0.00479
78.51176	0.00447
78.58420	0.00769
78.63594	0.00866
78.68768	0.00850
78.73942	0.00221
78.78082	0.00592
78.82221	0.00318
78.87395	0.00495
78.91534	0.00366
78.96708	0.00705
79.01883	0.00479
79.07057	0.00366
79.12231	0.00286
79.19474	0.00834
79.25683	0.01059
79.31892	0.00882
79.39136	0.00624
79.45345	0.01156
79.50519	0.00592
79.54658	0.00801
79.57763	0.00431
79.60867	0.00769
79.63972	0.00769
79.67076	0.00898
79.70181	0.00640
79.74320	0.00995
79.79494	0.00527
79.84668	0.00560
79.90877	0.00737
79.97086	0.00866
80.02260	0.00624